File: Examples/TiO2_out.txt
Wavelength (nm),Absorbance,"Energy, eV",Direct transition,Indirect transition
190.0,6.383,6.52632,1735.35,6.45426
193.0,7.31,6.42487,2205.79,6.85316
196.0,8.003,6.32653,2563.52,7.11556
199.0,8.006,6.23116,2488.68,7.06305
202.0,8.052,6.13861,2443.14,7.03051
205.0,8.392,6.04878,2576.72,7.1247
208.0,8.387,5.96154,2499.94,7.07103
211.0,8.405,5.87678,2439.8,7.02811
214.0,8.494,5.79439,2422.37,7.01552
217.0,8.557,5.71429,2390.93,6.99265
220.0,8.455,5.63636,2271.04,6.90329
223.0,8.42,5.56054,2192.09,6.84249
226.0,8.31,5.48673,2078.88,6.75238
229.0,8.273,5.41485,2006.77,6.69306
232.0,8.193,5.34483,1917.58,6.61741
235.0,8.124,5.2766,1837.59,6.54729
238.0,8.158,5.21008,1806.58,6.5195
241.0,8.1,5.14523,1736.92,6.45572
244.0,7.991,5.08197,1649.17,6.3726
247.0,8.003,5.02024,1614.19,6.33853
250.0,8.029,4.96,1585.94,6.31061
253.0,7.931,4.90119,1510.98,6.23469
256.0,7.891,4.84375,1460.92,6.1824
259.0,7.989,4.78764,1462.95,6.18454
262.0,8.063,4.73282,1456.24,6.17744
265.0,8.024,4.67925,1409.72,6.1275
268.0,8.14,4.62687,1418.48,6.13699
271.0,8.136,4.57565,1385.88,6.10143
274.0,8.135,4.52555,1355.37,6.06756
277.0,8.2,4.47653,1347.45,6.05868
280.0,8.235,4.42857,1330.01,6.03898
283.0,8.297,4.38163,1321.64,6.02946
286.0,8.385,4.33566,1321.65,6.02947
289.0,8.403,4.29066,1299.92,6.00453
292.0,8.492,4.24658,1300.46,6.00516
295.0,8.534,4.20339,1286.78,5.9893
298.0,8.61,4.16107,1283.56,5.98555
301.0,8.686,4.1196,1280.41,5.98188
304.0,8.733,4.07895,1268.89,5.96837
307.0,8.839,4.03909,1274.6,5.97507
310.0,8.783,4.0,1234.26,5.92723
313.0,8.896,3.96166,1242.06,5.93658
316.0,8.938,3.92405,1230.13,5.92226
319.0,8.975,3.88715,1217.11,5.90653
322.0,8.842,3.85093,1159.4,5.83523
325.0,8.85,3.81538,1140.15,5.81087
328.0,8.732,3.78049,1089.74,5.74554
331.0,8.653,3.74622,1050.8,5.69351
334.0,8.476,3.71257,990.221,5.60962
337.0,8.282,3.67953,928.654,5.52031
340.0,7.977,3.64706,846.379,5.39375
343.0,7.57,3.61516,748.94,5.23133
346.0,6.98,3.58382,625.752,5.0015
349.0,6.31,3.55301,502.633,4.73492
352.0,5.524,3.52273,378.674,4.4113
355.0,4.773,3.49296,277.952,4.08312
358.0,4.039,3.46369,195.715,3.7403
361.0,3.404,3.4349,136.712,3.41942
364.0,2.846,3.40659,93.9962,3.11371
367.0,2.398,3.37875,65.6462,2.84644
370.0,2.015,3.35135,45.6026,2.59865
373.0,1.662,3.3244,30.5273,2.35056
376.0,1.372,3.29787,20.4727,2.12713
379.0,1.118,3.27177,13.3798,1.91255
382.0,0.886,3.24607,8.2715,1.69588
385.0,0.693,3.22078,4.98182,1.49399
388.0,0.533,3.19588,2.90158,1.30514
391.0,0.398,3.17136,1.59315,1.12348
394.0,0.294,3.14721,0.856142,0.961914
397.0,0.212,3.12343,0.438464,0.813736
400.0,0.151,3.1,0.219118,0.684178
403.0,0.106,3.07692,0.106376,0.571099
406.0,0.072,3.05419,0.0483567,0.468937
409.0,0.048,3.03178,0.0211777,0.381478
412.0,0.031,3.00971,0.00870507,0.305452
415.0,0.02,2.98795,0.00357114,0.244457
418.0,0.012,2.96651,0.00126722,0.188675
421.0,0.007,2.94537,0.000425084,0.143588
424.0,0.004,2.92453,0.000136846,0.108158
427.0,0.002,2.90398,3.37324e-05,0.07621
430.0,0.001,2.88372,8.31585e-06,0.0537003
433.0,0.0,2.86374,0.0,0.0
436.0,0.0,2.84404,0.0,0.0
439.0,0.0,2.8246,0.0,0.0
442.0,0.0,2.80543,0.0,0.0
445.0,0.0,2.78652,0.0,0.0
448.0,0.001,2.76786,7.66103e-06,0.0526104
451.0,0.001,2.74945,7.55945e-06,0.0524352
454.0,0.001,2.73128,7.45988e-06,0.0522616
457.0,0.001,2.71335,7.36226e-06,0.0520898
460.0,0.002,2.69565,2.90662e-05,0.0734255
463.0,0.002,2.67819,2.86907e-05,0.0731872
466.0,0.002,2.66094,2.83225e-05,0.0729513
469.0,0.002,2.64392,2.79613e-05,0.0727176
472.0,0.003,2.62712,6.21158e-05,0.088777
475.0,0.003,2.61053,6.13336e-05,0.0884962
478.0,0.003,2.59414,6.05662e-05,0.0882181
481.0,0.003,2.57796,5.9813e-05,0.0879425
484.0,0.003,2.56198,5.90738e-05,0.0876696
487.0,0.003,2.5462,5.83483e-05,0.0873991
490.0,0.003,2.53061,5.7636e-05,0.0871311
493.0,0.004,2.51521,0.000101221,0.100304
496.0,0.004,2.5,0.0001,0.1
499.0,0.004,2.48497,9.88012e-05,0.0996989
502.0,0.004,2.47012,9.76238e-05,0.0994006
505.0,0.004,2.45545,9.64674e-05,0.0991049
508.0,0.004,2.44094,9.53314e-05,0.0988118
511.0,0.004,2.42661,9.42153e-05,0.0985214
514.0,0.004,2.41245,9.31187e-05,0.0982334
517.0,0.004,2.39845,9.20412e-05,0.097948
520.0,0.004,2.38462,9.09822e-05,0.097665
523.0,0.004,2.37094,8.99415e-05,0.0973845
526.0,0.004,2.35741,8.89184e-05,0.0971064
529.0,0.004,2.34405,8.79128e-05,0.0968307
532.0,0.004,2.33083,8.69241e-05,0.0965573
535.0,0.004,2.31776,8.5952e-05,0.0962862
538.0,0.004,2.30483,8.49961e-05,0.0960173
541.0,0.004,2.29205,8.4056e-05,0.0957508
544.0,0.004,2.27941,8.31315e-05,0.0954864
547.0,0.004,2.26691,8.22221e-05,0.0952242
550.0,0.005,2.25455,0.000127074,0.106173
553.0,0.004,2.24231,8.04476e-05,0.0947062
556.0,0.004,2.23022,7.95818e-05,0.0944503
559.0,0.005,2.21825,0.000123015,0.105315
562.0,0.005,2.20641,0.000121706,0.105033
565.0,0.005,2.19469,0.000120417,0.104754
568.0,0.005,2.1831,0.000119148,0.104477
571.0,0.005,2.17163,0.000117899,0.104202
574.0,0.005,2.16028,0.00011667,0.10393
577.0,0.005,2.14905,0.00011546,0.103659
580.0,0.005,2.13793,0.000114269,0.103391
583.0,0.005,2.12693,0.000113096,0.103124
586.0,0.005,2.11604,0.000111941,0.10286
589.0,0.005,2.10526,0.000110803,0.102598
592.0,0.005,2.09459,0.000109683,0.102338
595.0,0.005,2.08403,0.00010858,0.102079
598.0,0.005,2.07358,0.000107493,0.101823
601.0,0.005,2.06323,0.000106423,0.101568
604.0,0.005,2.05298,0.000105368,0.101316
607.0,0.005,2.04283,0.000104329,0.101065
610.0,0.005,2.03279,0.000103306,0.100816
613.0,0.005,2.02284,0.000102297,0.100569
616.0,0.005,2.01299,0.000101303,0.100324
619.0,0.005,2.00323,0.000100323,0.100081
622.0,0.005,1.99357,9.93579e-05,0.0998391
625.0,0.005,1.984,9.84064e-05,0.0995992
628.0,0.005,1.97452,9.74685e-05,0.099361
631.0,0.005,1.96513,9.65439e-05,0.0991245
634.0,0.005,1.95584,9.56324e-05,0.0988897
637.0,0.005,1.94662,9.47337e-05,0.0986566
640.0,0.005,1.9375,9.38477e-05,0.0984251
643.0,0.005,1.92846,9.2974e-05,0.0981952
646.0,0.005,1.9195,9.21125e-05,0.0979669
649.0,0.005,1.91063,9.12628e-05,0.0977403
652.0,0.005,1.90184,9.04249e-05,0.0975151
655.0,0.005,1.89313,8.95985e-05,0.0972916
658.0,0.006,1.8845,0.000127848,0.106334
661.0,0.006,1.87595,0.00012669,0.106093
664.0,0.006,1.86747,0.000125548,0.105853
667.0,0.006,1.85907,0.000124421,0.105615
670.0,0.006,1.85075,0.000123309,0.105378
673.0,0.006,1.8425,0.000122213,0.105143
676.0,0.006,1.83432,0.00012113,0.104909
679.0,0.006,1.82622,0.000120062,0.104677
682.0,0.006,1.81818,0.000119008,0.104447
685.0,0.006,1.81022,0.000117968,0.104218
688.0,0.006,1.80233,0.000116942,0.10399
691.0,0.006,1.7945,0.000115928,0.103764
694.0,0.006,1.78674,0.000114928,0.10354
697.0,0.006,1.77905,0.000113941,0.103317
700.0,0.006,1.77143,0.000112967,0.103095
703.0,0.006,1.76387,0.000112004,0.102875
706.0,0.006,1.75637,0.000111055,0.102656
709.0,0.006,1.74894,0.000110117,0.102439
712.0,0.006,1.74157,0.000109191,0.102222
715.0,0.006,1.73427,0.000108276,0.102008
718.0,0.006,1.72702,0.000107373,0.101794
721.0,0.006,1.71983,0.000106482,0.101582
724.0,0.006,1.71271,0.000105601,0.101372
727.0,0.006,1.70564,0.000104731,0.101162
730.0,0.006,1.69863,0.000103872,0.100954
733.0,0.006,1.69168,0.000103024,0.100748
736.0,0.006,1.68478,0.000102186,0.100542
739.0,0.005,1.67794,7.03873e-05,0.0915954
742.0,0.005,1.67116,6.98193e-05,0.09141
745.0,0.005,1.66443,6.92581e-05,0.0912258
748.0,0.006,1.65775,9.89333e-05,0.0997323
751.0,0.005,1.65113,6.81559e-05,0.0908607
754.0,0.006,1.64456,9.73651e-05,0.0993347
757.0,0.005,1.63804,6.70798e-05,0.0904999
760.0,0.005,1.63158,6.65512e-05,0.0903211
763.0,0.005,1.62516,6.60289e-05,0.0901433
766.0,0.005,1.6188,6.55128e-05,0.0899666
769.0,0.005,1.61248,6.50026e-05,0.089791
772.0,0.005,1.60622,6.44984e-05,0.0896163
775.0,0.005,1.6,6.4e-05,0.0894427
778.0,0.005,1.59383,6.35074e-05,0.0892701
781.0,0.005,1.58771,6.30204e-05,0.0890985
784.0,0.005,1.58163,6.2539e-05,0.0889279
787.0,0.005,1.5756,6.20632e-05,0.0887582
790.0,0.005,1.56962,6.15927e-05,0.0885895
793.0,0.005,1.56368,6.11276e-05,0.0884218
796.0,0.005,1.55779,6.06677e-05,0.088255
799.0,0.005,1.55194,6.02129e-05,0.0880892
802.0,0.005,1.54613,5.97633e-05,0.0879242
805.0,0.005,1.54037,5.93187e-05,0.0877603
808.0,0.005,1.53465,5.8879e-05,0.0875972
811.0,0.005,1.52898,5.84442e-05,0.087435
814.0,0.005,1.52334,5.80142e-05,0.0872738
817.0,0.005,1.51775,5.7589e-05,0.0871134
820.0,0.005,1.5122,5.71684e-05,0.0869539
823.0,0.005,1.50668,5.67523e-05,0.0867952
826.0,0.005,1.50121,5.63408e-05,0.0866375
829.0,0.005,1.49578,5.59338e-05,0.0864806
832.0,0.005,1.49038,5.55312e-05,0.0863245
835.0,0.005,1.48503,5.51328e-05,0.0861693
838.0,0.005,1.47971,5.47388e-05,0.0860149
841.0,0.005,1.47444,5.4349e-05,0.0858614
844.0,0.005,1.46919,5.39633e-05,0.0857086
847.0,0.005,1.46399,5.35817e-05,0.0855567
850.0,0.005,1.45882,5.32042e-05,0.0854056
853.0,0.004,1.45369,3.38116e-05,0.0762546
856.0,0.005,1.4486,5.24609e-05,0.0851058
859.0,0.005,1.44354,5.20951e-05,0.084957
862.0,0.005,1.43852,5.17331e-05,0.0848091
865.0,0.005,1.43353,5.13749e-05,0.0846619
868.0,0.004,1.42857,3.26531e-05,0.0755929
871.0,0.004,1.42365,3.24285e-05,0.0754626
874.0,0.003,1.41876,1.8116e-05,0.0652403
877.0,0.004,1.41391,3.19863e-05,0.075204
880.0,0.003,1.40909,1.78698e-05,0.0650175
883.0,0.004,1.4043,3.15531e-05,0.0749481
886.0,0.005,1.39955,4.89684e-05,0.0836525
889.0,0.004,1.39483,3.11286e-05,0.0746947
892.0,0.004,1.39013,3.09196e-05,0.074569
895.0,0.005,1.38547,4.79885e-05,0.0832308
898.0,0.005,1.38085,4.76684e-05,0.0830917
900.0,0.003,1.37778,1.70844e-05,0.064291