File: Examples/TiO2.txt
Wavelength (nm),Absorbance
190.0,6.383
192.5,7.291
195.0,7.640
197.5,8.392
200.0,7.956
202.5,8.139
205.0,8.392
207.5,8.399
210.0,8.478
212.5,8.458
215.0,8.396
217.5,8.525
220.0,8.455
222.5,8.470
225.0,8.365
227.5,8.313
230.0,8.246
232.5,8.165
235.0,8.124
237.5,8.170
240.0,8.144
242.5,8.044
245.0,7.949
247.5,7.972
250.0,8.029
252.5,7.905
255.0,7.935
257.5,7.989
260.0,7.989
262.5,8.075
265.0,8.024
267.5,8.107
270.0,8.109
272.5,8.138
275.0,8.193
277.5,8.221
280.0,8.235
282.5,8.232
285.0,8.332
287.5,8.389
290.0,8.396
292.5,8.469
295.0,8.534
297.5,8.587
300.0,8.667
302.5,8.740
305.0,8.719
307.5,8.883
310.0,8.783
312.5,8.892
315.0,8.923
317.5,8.922
320.0,8.899
322.5,8.814
325.0,8.850
327.5,8.769
330.0,8.676
332.5,8.561
335.0,8.444
337.5,8.223
340.0,7.977
342.5,7.637
345.0,7.147
347.5,6.673
350.0,6.081
352.5,5.395
355.0,4.773
357.5,4.157
360.0,3.603
362.5,3.105
365.0,2.676
367.5,2.324
370.0,2.015
372.5,1.720
375.0,1.466
377.5,1.242
380.0,1.039
382.5,0.849
385.0,0.693
387.5,0.560
390.0,0.441
392.5,0.343
395.0,0.264
397.5,0.201
400.0,0.151
402.5,0.113
405.0,0.082
407.5,0.058
410.0,0.041
412.5,0.029
415.0,0.020
417.5,0.013
420.0,0.009
422.5,0.005
425.0,0.003
427.5,0.002
430.0,0.001
432.5,0.000
435.0,0.000
437.5,0.000
440.0,0.000
442.5,0.000
445.0,0.000
447.5,0.001
450.0,0.001
452.5,0.001
455.0,0.001
457.5,0.002
460.0,0.002
462.5,0.002
465.0,0.002
467.5,0.002
470.0,0.003
472.5,0.003
475.0,0.003
477.5,0.003
480.0,0.003
482.5,0.003
485.0,0.003
487.5,0.003
490.0,0.003
492.5,0.004
495.0,0.004
497.5,0.004
500.0,0.004
502.5,0.004
505.0,0.004
507.5,0.004
510.0,0.004
512.5,0.004
515.0,0.004
517.5,0.004
520.0,0.004
522.5,0.004
525.0,0.004
527.5,0.004
530.0,0.004
532.5,0.004
535.0,0.004
537.5,0.004
540.0,0.004
542.5,0.004
545.0,0.004
547.5,0.004
550.0,0.005
552.5,0.005
555.0,0.005
557.5,0.005
560.0,0.005
562.5,0.005
565.0,0.005
567.5,0.005
570.0,0.005
572.5,0.005
575.0,0.005
577.5,0.005
580.0,0.005
582.5,0.005
585.0,0.005
587.5,0.005
590.0,0.005
592.5,0.005
595.0,0.005
597.5,0.005
600.0,0.005
602.5,0.005
605.0,0.005
607.5,0.005
610.0,0.005
612.5,0.005
615.0,0.005
617.5,0.005
620.0,0.005
622.5,0.005
625.0,0.005
627.5,0.005
630.0,0.005
632.5,0.005
635.0,0.005
637.5,0.005
640.0,0.005
642.5,0.005
645.0,0.005
647.5,0.005
650.0,0.005
652.5,0.006
655.0,0.005
657.5,0.006
660.0,0.006
662.5,0.006
665.0,0.006
667.5,0.006
670.0,0.006
672.5,0.006
675.0,0.006
677.5,0.006
680.0,0.006
682.5,0.006
685.0,0.006
687.5,0.006
690.0,0.006
692.5,0.006
695.0,0.006
697.5,0.006
700.0,0.006
702.5,0.006
705.0,0.006
707.5,0.006
710.0,0.006
712.5,0.006
715.0,0.006
717.5,0.006
720.0,0.006
722.5,0.006
725.0,0.006
727.5,0.006
730.0,0.006
732.5,0.006
735.0,0.006
737.5,0.006
740.0,0.006
742.5,0.006
745.0,0.005
747.5,0.006
750.0,0.005
752.5,0.005
755.0,0.005
757.5,0.005
760.0,0.005
762.5,0.005
765.0,0.005
767.5,0.005
770.0,0.005
772.5,0.005
775.0,0.005
777.5,0.005
780.0,0.005
782.5,0.005
785.0,0.005
787.5,0.005
790.0,0.005
792.5,0.005
795.0,0.005
797.5,0.005
800.0,0.005
802.5,0.005
805.0,0.005
807.5,0.005
810.0,0.005
812.5,0.005
815.0,0.005
817.5,0.005
820.0,0.005
822.5,0.005
825.0,0.005
827.5,0.005
830.0,0.005
832.5,0.005
835.0,0.005
837.5,0.005
840.0,0.005
842.5,0.005
845.0,0.004
847.5,0.005
850.0,0.005
852.5,0.004
855.0,0.005
857.5,0.005
860.0,0.005
862.5,0.005
865.0,0.005
867.5,0.005
870.0,0.004
872.5,0.005
875.0,0.004
877.5,0.004
880.0,0.003
882.5,0.004
885.0,0.005
887.5,0.002
890.0,0.003
892.5,0.003
895.0,0.005
897.5,0.005
900.0,0.003